#  Energy [eV]     Im_eps_xx
 
      0.00000     0.00000000E+00
      0.01361     0.00000000E+00
      0.02721     0.00000000E+00
      0.04082     0.00000000E+00
      0.05442     0.00000000E+00
      0.06803     0.00000000E+00
      0.08163     0.00000000E+00
      0.09524     0.00000000E+00
      0.10885     0.00000000E+00
      0.12245     0.00000000E+00
      0.13606     0.00000000E+00
      0.14966     0.00000000E+00
      0.16327     0.00000000E+00
      0.17687     0.00000000E+00
      0.19048     0.00000000E+00
      0.20409     0.00000000E+00
      0.21769     0.00000000E+00
      0.23130     0.00000000E+00
      0.24490     0.00000000E+00
      0.25851     0.00000000E+00
      0.27211     0.00000000E+00
      0.28572     0.00000000E+00
      0.29933     0.00000000E+00
      0.31293     0.00000000E+00
      0.32654     0.00000000E+00
      0.34014     0.00000000E+00
      0.35375     0.00000000E+00
      0.36735     0.00000000E+00
      0.38096     0.00000000E+00
      0.39457     0.00000000E+00
      0.40817     0.00000000E+00
      0.42178     0.00000000E+00
      0.43538     0.00000000E+00
      0.44899     0.00000000E+00
      0.46259     0.00000000E+00
      0.47620     0.00000000E+00
      0.48981     0.00000000E+00
      0.50341     0.00000000E+00
      0.51702     0.00000000E+00
      0.53062     0.00000000E+00
      0.54423     0.00000000E+00
      0.55783     0.00000000E+00
      0.57144     0.00000000E+00
      0.58504     0.00000000E+00
      0.59865     0.00000000E+00
      0.61226     0.00000000E+00
      0.62586     0.00000000E+00
      0.63947     0.00000000E+00
      0.65307     0.00000000E+00
      0.66668     0.00000000E+00
      0.68028     0.00000000E+00
      0.69389     0.00000000E+00
      0.70750     0.00000000E+00
      0.72110     0.00000000E+00
      0.73471     0.00000000E+00
      0.74831     0.00000000E+00
      0.76192     0.00000000E+00
      0.77552     0.00000000E+00
      0.78913     0.00000000E+00
      0.80274     0.00000000E+00
      0.81634     0.00000000E+00
      0.82995     0.00000000E+00
      0.84355     0.00000000E+00
      0.85716     0.00000000E+00
      0.87076     0.00000000E+00
      0.88437     0.00000000E+00
      0.89798     0.00000000E+00
      0.91158     0.00000000E+00
      0.92519     0.00000000E+00
      0.93879     0.00000000E+00
      0.95240     0.00000000E+00
      0.96600     0.00000000E+00
      0.97961     0.00000000E+00
      0.99322     0.00000000E+00
      1.00682     0.00000000E+00
      1.02043     0.00000000E+00
      1.03403     0.00000000E+00
      1.04764     0.00000000E+00
      1.06124     0.00000000E+00
      1.07485     0.00000000E+00
      1.08846     0.00000000E+00
      1.10206     0.00000000E+00
      1.11567     0.00000000E+00
      1.12927     0.00000000E+00
      1.14288     0.00000000E+00
      1.15648     0.00000000E+00
      1.17009     0.00000000E+00
      1.18370     0.00000000E+00
      1.19730     0.00000000E+00
      1.21091     0.00000000E+00
      1.22451     0.00000000E+00
      1.23812     0.00000000E+00
      1.25172     0.00000000E+00
      1.26533     0.00000000E+00
      1.27894     0.00000000E+00
      1.29254     0.00000000E+00
      1.30615     0.00000000E+00
      1.31975     0.00000000E+00
      1.33336     0.00000000E+00
      1.34696     0.00000000E+00
      1.36057     0.00000000E+00
      1.37418     0.00000000E+00
      1.38778     0.00000000E+00
      1.40139     0.00000000E+00
      1.41499     0.00000000E+00
      1.42860     0.00000000E+00
      1.44220     0.00000000E+00
      1.45581     0.00000000E+00
      1.46942     0.00000000E+00
      1.48302     0.00000000E+00
      1.49663     0.00000000E+00
      1.51023     0.00000000E+00
      1.52384     0.00000000E+00
      1.53744     0.00000000E+00
      1.55105     0.00000000E+00
      1.56466     0.00000000E+00
      1.57826     0.00000000E+00
      1.59187     0.00000000E+00
      1.60547     0.00000000E+00
      1.61908     0.00000000E+00
      1.63268     0.00000000E+00
      1.64629     0.00000000E+00
      1.65990     0.00000000E+00
      1.67350     0.00000000E+00
      1.68711     0.00000000E+00
      1.70071     0.00000000E+00
      1.71432     0.00000000E+00
      1.72792     0.00000000E+00
      1.74153     0.00000000E+00
      1.75513     0.00000000E+00
      1.76874     0.00000000E+00
      1.78235     0.00000000E+00
      1.79595     0.00000000E+00
      1.80956     0.00000000E+00
      1.82316     0.00000000E+00
      1.83677     0.00000000E+00
      1.85037     0.00000000E+00
      1.86398     0.00000000E+00
      1.87759     0.00000000E+00
      1.89119     0.00000000E+00
      1.90480     0.00000000E+00
      1.91840     0.00000000E+00
      1.93201     0.00000000E+00
      1.94561     0.00000000E+00
      1.95922     0.00000000E+00
      1.97283     0.00000000E+00
      1.98643     0.00000000E+00
      2.00004     0.00000000E+00
      2.01364     0.00000000E+00
      2.02725     0.00000000E+00
      2.04085     0.00000000E+00
      2.05446     0.00000000E+00
      2.06807     0.00000000E+00
      2.08167     0.00000000E+00
      2.09528     0.00000000E+00
      2.10888     0.00000000E+00
      2.12249     0.00000000E+00
      2.13609     0.00000000E+00
      2.14970     0.00000000E+00
      2.16331     0.00000000E+00
      2.17691     0.00000000E+00
      2.19052     0.00000000E+00
      2.20412     0.00000000E+00
      2.21773     0.00000000E+00
      2.23133     0.00000000E+00
      2.24494     0.00000000E+00
      2.25855     0.00000000E+00
      2.27215     0.00000000E+00
      2.28576     0.00000000E+00
      2.29936     0.00000000E+00
      2.31297     0.00000000E+00
      2.32657     0.00000000E+00
      2.34018     0.00000000E+00
      2.35379     0.00000000E+00
      2.36739     0.00000000E+00
      2.38100     0.00000000E+00
      2.39460     0.00000000E+00
      2.40821     0.00000000E+00
      2.42181     0.00000000E+00
      2.43542     0.00000000E+00
      2.44903     0.00000000E+00
      2.46263     0.00000000E+00
      2.47624     0.00000000E+00
      2.48984     0.00000000E+00
      2.50345     0.00000000E+00
      2.51705     0.00000000E+00
      2.53066     0.00000000E+00
      2.54427     0.36133003E-02
      2.55787     0.18463441E+00
      2.57148     0.99997778E+00
      2.58508     0.26668901E+01
      2.59869     0.61800960E+01
      2.61229     0.84447503E+01
      2.62590     0.13255893E+02
      2.63951     0.17374581E+02
      2.65311     0.21777406E+02
      2.66672     0.21820810E+02
      2.68032     0.20676242E+02
      2.69393     0.20007008E+02
      2.70753     0.19331196E+02
      2.72114     0.18806670E+02
      2.73475     0.18588380E+02
      2.74835     0.18821129E+02
      2.76196     0.19275820E+02
      2.77556     0.19783798E+02
      2.78917     0.20503344E+02
      2.80277     0.21713323E+02
      2.81638     0.21553029E+02
      2.82999     0.21643793E+02
      2.84359     0.21753922E+02
      2.85720     0.21193770E+02
      2.87080     0.21311955E+02
      2.88441     0.21487900E+02
      2.89801     0.23088921E+02
      2.91162     0.21696551E+02
      2.92522     0.21651376E+02
      2.93883     0.21685126E+02
      2.95244     0.21814168E+02
      2.96604     0.22156592E+02
      2.97965     0.22680171E+02
      2.99325     0.22198145E+02
      3.00686     0.22149376E+02
      3.02046     0.22337531E+02
      3.03407     0.22715965E+02
      3.04768     0.22816950E+02
      3.06128     0.22913134E+02
      3.07489     0.22989085E+02
      3.08849     0.23101683E+02
      3.10210     0.23218473E+02
      3.11570     0.23344991E+02
      3.12931     0.23472728E+02
      3.14292     0.23499680E+02
      3.15652     0.23514801E+02
      3.17013     0.23603026E+02
      3.18373     0.23727314E+02
      3.19734     0.23865188E+02
      3.21094     0.23961610E+02
      3.22455     0.24109349E+02
      3.23816     0.24266257E+02
      3.25176     0.24441853E+02
      3.26537     0.24641082E+02
      3.27897     0.24741214E+02
      3.29258     0.24891946E+02
      3.30618     0.25074047E+02
      3.31979     0.25251350E+02
      3.33340     0.25441073E+02
      3.34700     0.25657603E+02
      3.36061     0.25902475E+02
      3.37421     0.26006806E+02
      3.38782     0.26241471E+02
      3.40142     0.26499613E+02
      3.41503     0.26829597E+02
      3.42864     0.27180502E+02
      3.44224     0.27561964E+02
      3.45585     0.28011348E+02
      3.46945     0.28381401E+02
      3.48306     0.28892238E+02
      3.49666     0.29550708E+02
      3.51027     0.30282280E+02
      3.52388     0.31104746E+02
      3.53748     0.32055367E+02
      3.55109     0.33954751E+02
      3.56469     0.35858144E+02
      3.57830     0.37795504E+02
      3.59190     0.39854665E+02
      3.60551     0.42128005E+02
      3.61912     0.44465891E+02
      3.63272     0.46824073E+02
      3.64633     0.49258092E+02
      3.65993     0.51901390E+02
      3.67354     0.55185630E+02
      3.68714     0.59157349E+02
      3.70075     0.65678257E+02
      3.71436     0.69025221E+02
      3.72796     0.69743937E+02
      3.74157     0.69596530E+02
      3.75517     0.69132140E+02
      3.76878     0.69504702E+02
      3.78238     0.64992872E+02
      3.79599     0.60294130E+02
      3.80960     0.56108436E+02
      3.82320     0.52111051E+02
      3.83681     0.48102946E+02
      3.85041     0.43978878E+02
      3.86402     0.39474634E+02
      3.87762     0.32535644E+02
      3.89123     0.30357489E+02
      3.90484     0.29742127E+02
      3.91844     0.29120309E+02
      3.93205     0.28542741E+02
      3.94565     0.28001577E+02
      3.95926     0.27481644E+02
      3.97286     0.26995431E+02
      3.98647     0.26546976E+02
      4.00008     0.26076480E+02
      4.01368     0.25624760E+02
      4.02729     0.25186250E+02
      4.04089     0.24763939E+02
      4.05450     0.24356830E+02
      4.06810     0.23960850E+02
      4.08171     0.23576513E+02
      4.09531     0.23181088E+02
      4.10892     0.22810366E+02
      4.12253     0.22452358E+02
      4.13613     0.22106108E+02
      4.14974     0.21764497E+02
      4.16334     0.21443290E+02
      4.17695     0.21103356E+02
      4.19055     0.20762432E+02
      4.20416     0.20491391E+02
      4.21777     0.20211041E+02
      4.23137     0.19931242E+02
      4.24498     0.19597203E+02
      4.25858     0.19223244E+02
      4.27219     0.18852482E+02
      4.28579     0.18486505E+02
      4.29940     0.18123789E+02
      4.31301     0.17790785E+02
      4.32661     0.17443692E+02
      4.34022     0.17117109E+02
      4.35382     0.16866586E+02
      4.36743     0.16657165E+02
      4.38103     0.16472730E+02
      4.39464     0.16408038E+02
      4.40825     0.16372809E+02
      4.42185     0.16374507E+02
      4.43546     0.16410644E+02
      4.44906     0.16437818E+02
      4.46267     0.16486950E+02
      4.47627     0.16584131E+02
      4.48988     0.16958532E+02
      4.50349     0.17707242E+02
      4.51709     0.18802635E+02
      4.53070     0.23767814E+02
      4.54430     0.20164089E+02
      4.55791     0.19635264E+02
      4.57151     0.19046553E+02
      4.58512     0.18467786E+02
      4.59873     0.17976245E+02
      4.61233     0.17622149E+02
      4.62594     0.17187495E+02
      4.63954     0.16707956E+02
      4.65315     0.16253050E+02
      4.66675     0.15893939E+02
      4.68036     0.15646510E+02
      4.69397     0.15433184E+02
      4.70757     0.15253567E+02
      4.72118     0.15073020E+02
      4.73478     0.14740862E+02
      4.74839     0.14485048E+02
      4.76199     0.14269159E+02
      4.77560     0.14059734E+02
      4.78921     0.13863989E+02
      4.80281     0.13682775E+02
      4.81642     0.13525220E+02
      4.83002     0.13375467E+02
      4.84363     0.13239341E+02
      4.85723     0.13105636E+02
      4.87084     0.12973168E+02
      4.88445     0.12841783E+02
      4.89805     0.12752730E+02
      4.91166     0.12654156E+02
      4.92526     0.12555421E+02
      4.93887     0.12475904E+02
      4.95247     0.12396968E+02
      4.96608     0.12306666E+02
      4.97969     0.12200746E+02
      4.99329     0.12117105E+02
      5.00690     0.12051198E+02
      5.02050     0.12014540E+02
      5.03411     0.12045064E+02
      5.04771     0.12167167E+02
      5.06132     0.12533453E+02
      5.07493     0.12663875E+02
      5.08853     0.12368918E+02
      5.10214     0.11988972E+02
      5.11574     0.11673407E+02
      5.12935     0.11333576E+02
      5.14295     0.11021734E+02
      5.15656     0.10748340E+02
      5.17017     0.10518956E+02
      5.18377     0.10291198E+02
      5.19738     0.10063073E+02
      5.21098     0.98345249E+01
      5.22459     0.96189229E+01
      5.23819     0.94381409E+01
      5.25180     0.92525222E+01
      5.26540     0.90371250E+01
      5.27901     0.88188423E+01
      5.29262     0.86375488E+01
      5.30622     0.84977137E+01
      5.31983     0.83633383E+01
      5.33343     0.82318645E+01
      5.34704     0.81026063E+01
      5.36064     0.79703932E+01
      5.37425     0.78400328E+01
      5.38786     0.77174556E+01
      5.40146     0.76039059E+01
      5.41507     0.74976173E+01
      5.42867     0.73959995E+01
      5.44228     0.73064349E+01
      5.45588     0.72238723E+01
      5.46949     0.71483558E+01
      5.48310     0.70806114E+01
      5.49670     0.70200852E+01
      5.51031     0.69673946E+01
      5.52391     0.69226495E+01
      5.53752     0.68811839E+01
      5.55112     0.68554277E+01
      5.56473     0.68465049E+01
      5.57834     0.68628538E+01
      5.59194     0.68808939E+01
      5.60555     0.67820499E+01
      5.61915     0.67531225E+01
      5.63276     0.67282433E+01
      5.64636     0.66997993E+01
      5.65997     0.66621929E+01
      5.67358     0.66194764E+01
      5.68718     0.65740676E+01
      5.70079     0.65209647E+01
      5.71439     0.64587116E+01
      5.72800     0.63889364E+01
      5.74160     0.63388543E+01
      5.75521     0.62951274E+01
      5.76882     0.62475211E+01
      5.78242     0.61898764E+01
      5.79603     0.61488846E+01
      5.80963     0.61128083E+01
      5.82324     0.60861317E+01
      5.83684     0.60486656E+01
      5.85045     0.60138637E+01
      5.86406     0.59829775E+01
      5.87766     0.61023356E+01
      5.89127     0.59046262E+01
      5.90487     0.58434208E+01
      5.91848     0.62686243E+01
      5.93208     0.56114116E+01
      5.94569     0.54195463E+01
      5.95930     0.52872761E+01
      5.97290     0.51846899E+01
      5.98651     0.50988640E+01
      6.00011     0.50591794E+01
      6.01372     0.49949434E+01
      6.02732     0.49374201E+01
      6.04093     0.48714598E+01
      6.05454     0.48040689E+01
      6.06814     0.47349324E+01
      6.08175     0.46664960E+01
      6.09535     0.45957783E+01
      6.10896     0.45242826E+01
      6.12256     0.44596772E+01
      6.13617     0.44006055E+01
      6.14978     0.43471063E+01
      6.16338     0.42980705E+01
      6.17699     0.42503947E+01
      6.19059     0.42035001E+01
      6.20420     0.41589462E+01
      6.21780     0.41205693E+01
      6.23141     0.40864575E+01
      6.24502     0.40499249E+01
      6.25862     0.40109072E+01
      6.27223     0.39770225E+01
      6.28583     0.39465694E+01
      6.29944     0.39134344E+01
      6.31304     0.38801384E+01
      6.32665     0.38492831E+01
      6.34026     0.38201966E+01
      6.35386     0.37921167E+01
      6.36747     0.37649052E+01
      6.38107     0.37391894E+01
      6.39468     0.37189260E+01
      6.40828     0.37009049E+01
      6.42189     0.36858276E+01
      6.43549     0.36716347E+01
      6.44910     0.36563361E+01
      6.46271     0.36392383E+01
      6.47631     0.36225091E+01
      6.48992     0.36051551E+01
      6.50352     0.35859597E+01
      6.51713     0.35653220E+01
      6.53073     0.35464236E+01
      6.54434     0.35289965E+01
      6.55795     0.34936240E+01
      6.57155     0.34479996E+01
      6.58516     0.34023961E+01
      6.59876     0.33633682E+01
      6.61237     0.33275465E+01
      6.62597     0.32981395E+01
      6.63958     0.32692982E+01
      6.65319     0.32375069E+01
      6.66679     0.32122806E+01
      6.68040     0.31900137E+01
      6.69400     0.31766136E+01
      6.70761     0.31659408E+01
      6.72121     0.31554656E+01
      6.73482     0.31541671E+01
      6.74843     0.31668329E+01
      6.76203     0.31794847E+01
      6.77564     0.31677018E+01
      6.78924     0.31281768E+01
      6.80285     0.31170414E+01
      6.81645     0.31157777E+01
      6.83006     0.31185247E+01
      6.84367     0.31243006E+01
      6.85727     0.31379669E+01
      6.87088     0.31534217E+01
      6.88448     0.31584739E+01
      6.89809     0.31645954E+01
      6.91169     0.31730258E+01
      6.92530     0.31726869E+01
      6.93891     0.31586209E+01
      6.95251     0.31384385E+01
      6.96612     0.31121530E+01
      6.97972     0.30915021E+01
      6.99333     0.30757815E+01
      7.00693     0.30590786E+01
      7.02054     0.30442201E+01
      7.03415     0.30319740E+01
      7.04775     0.30261058E+01
      7.06136     0.30277882E+01
      7.07496     0.30336560E+01
      7.08857     0.30475797E+01
      7.10217     0.30564448E+01
      7.11578     0.30551999E+01
      7.12939     0.30570309E+01
      7.14299     0.30621001E+01
      7.15660     0.30692457E+01
      7.17020     0.30738880E+01
      7.18381     0.30763184E+01
      7.19741     0.30602962E+01
      7.21102     0.30190348E+01
      7.22463     0.29642288E+01
      7.23823     0.29028346E+01
      7.25184     0.28403150E+01
      7.26544     0.27855287E+01
      7.27905     0.27566536E+01
      7.29265     0.27334887E+01
      7.30626     0.27051355E+01
      7.31987     0.26828663E+01
      7.33347     0.26625259E+01
      7.34708     0.26397204E+01
      7.36068     0.26122577E+01
      7.37429     0.25878375E+01
      7.38789     0.25690617E+01
      7.40150     0.25635859E+01
      7.41511     0.25525833E+01
      7.42871     0.25328058E+01
      7.44232     0.25051433E+01
      7.45592     0.24898612E+01
      7.46953     0.24637394E+01
      7.48313     0.24531684E+01
      7.49674     0.24391055E+01
      7.51035     0.24247735E+01
      7.52395     0.23973509E+01
      7.53756     0.23582386E+01
      7.55116     0.23084464E+01
      7.56477     0.22780495E+01
      7.57837     0.22526139E+01
      7.59198     0.22359835E+01
      7.60558     0.22257432E+01
      7.61919     0.22015071E+01
      7.63280     0.21820191E+01
      7.64640     0.21798790E+01
      7.66001     0.21858209E+01
      7.67361     0.21897391E+01
      7.68722     0.21857412E+01
      7.70082     0.21743651E+01
      7.71443     0.21591745E+01
      7.72804     0.21527116E+01
      7.74164     0.21365741E+01
      7.75525     0.21177967E+01
      7.76885     0.20960946E+01
      7.78246     0.20858876E+01
      7.79606     0.20675083E+01
      7.80967     0.20559292E+01
      7.82328     0.20389967E+01
      7.83688     0.20238856E+01
      7.85049     0.20039959E+01
      7.86409     0.19942515E+01
      7.87770     0.19824848E+01
      7.89130     0.19700465E+01
      7.90491     0.19566241E+01
      7.91852     0.19463182E+01
      7.93212     0.19402051E+01
      7.94573     0.19321772E+01
      7.95933     0.19177041E+01
      7.97294     0.19046255E+01
      7.98654     0.18903629E+01
      8.00015     0.18763094E+01
      8.01376     0.18638664E+01
      8.02736     0.18529543E+01
      8.04097     0.18430378E+01
      8.05457     0.18338293E+01
      8.06818     0.18244732E+01
      8.08178     0.18194296E+01
      8.09539     0.18174784E+01
      8.10900     0.18160844E+01
      8.12260     0.18157720E+01
      8.13621     0.18160974E+01
      8.14981     0.18139962E+01
      8.16342     0.18231587E+01
      8.17702     0.18095113E+01
      8.19063     0.18029103E+01
      8.20424     0.17966700E+01
      8.21784     0.17895443E+01
      8.23145     0.17839268E+01
      8.24505     0.17785476E+01
      8.25866     0.17714724E+01
      8.27226     0.17626010E+01
      8.28587     0.17521101E+01
      8.29948     0.17415781E+01
      8.31308     0.17242814E+01
      8.32669     0.17047371E+01
      8.34029     0.16790475E+01
      8.35390     0.16408981E+01
      8.36750     0.16074201E+01
      8.38111     0.15821011E+01
      8.39472     0.15563952E+01
      8.40832     0.15373780E+01
      8.42193     0.15209404E+01
      8.43553     0.15055112E+01
      8.44914     0.14904359E+01
      8.46274     0.14903066E+01
      8.47635     0.14735888E+01
      8.48996     0.14627789E+01
      8.50356     0.14461087E+01
      8.51717     0.14306713E+01
      8.53077     0.14161806E+01
      8.54438     0.14043871E+01
      8.55798     0.13949250E+01
      8.57159     0.13868027E+01
      8.58520     0.13812861E+01
      8.59880     0.13762235E+01
      8.61241     0.13631402E+01
      8.62601     0.13475565E+01
      8.63962     0.13322602E+01
      8.65322     0.13238414E+01
      8.66683     0.13205101E+01
      8.68044     0.13180315E+01
      8.69404     0.13157725E+01
      8.70765     0.13107792E+01
      8.72125     0.13129937E+01
      8.73486     0.12879207E+01
      8.74846     0.12769161E+01
      8.76207     0.12685816E+01
      8.77567     0.12595093E+01
      8.78928     0.12505564E+01
      8.80289     0.12447182E+01
      8.81649     0.12370907E+01
      8.83010     0.12300425E+01
      8.84370     0.12218232E+01
      8.85731     0.12140817E+01
      8.87091     0.12063791E+01
      8.88452     0.11994620E+01
      8.89813     0.11959986E+01
      8.91173     0.11936876E+01
      8.92534     0.11842734E+01
      8.93894     0.11802323E+01
      8.95255     0.11788397E+01
      8.96615     0.11714313E+01
      8.97976     0.11662084E+01
      8.99337     0.11638199E+01
      9.00697     0.11560773E+01
      9.02058     0.11442663E+01
      9.03418     0.11368071E+01
      9.04779     0.11267728E+01
      9.06139     0.11197840E+01
      9.07500     0.11143583E+01
      9.08861     0.11088670E+01
      9.10221     0.11021649E+01
      9.11582     0.10946142E+01
      9.12942     0.10864553E+01
      9.14303     0.10775815E+01
      9.15663     0.10722954E+01
      9.17024     0.10624175E+01
      9.18385     0.10529575E+01
      9.19745     0.10437409E+01
      9.21106     0.10349464E+01
      9.22466     0.10287701E+01
      9.23827     0.10244876E+01
      9.25187     0.10224284E+01
      9.26548     0.10228224E+01
      9.27909     0.10216286E+01
      9.29269     0.10180423E+01
      9.30630     0.10121738E+01
      9.31990     0.10048532E+01
      9.33351     0.99776965E+00
      9.34711     0.99408720E+00
      9.36072     0.99557014E+00
      9.37433     0.99342591E+00
      9.38793     0.98785945E+00
      9.40154     0.98172202E+00
      9.41514     0.97710152E+00
      9.42875     0.97282336E+00
      9.44235     0.96948219E+00
      9.45596     0.96629613E+00
      9.46957     0.95689130E+00
      9.48317     0.94809294E+00
      9.49678     0.94052886E+00
      9.51038     0.93361804E+00
      9.52399     0.92626315E+00
      9.53759     0.91898478E+00
      9.55120     0.91234196E+00
      9.56481     0.90587905E+00
      9.57841     0.89948742E+00
      9.59202     0.89305645E+00
      9.60562     0.88683549E+00
      9.61923     0.88126757E+00
      9.63283     0.87723335E+00
      9.64644     0.87294660E+00
      9.66005     0.86793656E+00
      9.67365     0.86267458E+00
      9.68726     0.85736511E+00
      9.70086     0.85218365E+00
      9.71447     0.84792458E+00
      9.72807     0.84347720E+00
      9.74168     0.83872184E+00
      9.75529     0.83434247E+00
      9.76889     0.83031066E+00
      9.78250     0.82646218E+00
      9.79610     0.82295518E+00
      9.80971     0.82033507E+00
      9.82331     0.81877524E+00
      9.83692     0.81921364E+00
      9.85053     0.81933764E+00
      9.86413     0.82169850E+00
      9.87774     0.80991033E+00
      9.89134     0.80634276E+00
      9.90495     0.82781190E+00
      9.91855     0.80091242E+00
      9.93216     0.79525369E+00
      9.94576     0.78956109E+00
      9.95937     0.78426603E+00
      9.97298     0.78006681E+00
      9.98658     0.77236219E+00
     10.00019     0.76675980E+00
     10.01379     0.76137750E+00
     10.02740     0.75790077E+00
     10.04100     0.75490103E+00
     10.05461     0.75248037E+00
     10.06822     0.75049359E+00
     10.08182     0.74879405E+00
     10.09543     0.74747371E+00
     10.10903     0.74827046E+00
     10.12264     0.74822288E+00
     10.13624     0.74466508E+00
     10.14985     0.74543599E+00
     10.16346     0.75140693E+00
     10.17706     0.74270016E+00
     10.19067     0.74353210E+00
     10.20427     0.73691552E+00
     10.21788     0.73486570E+00
     10.23148     0.72861318E+00
     10.24509     0.72138337E+00
     10.25870     0.70825728E+00
     10.27230     0.70511579E+00
     10.28591     0.70353909E+00
     10.29951     0.70279409E+00
     10.31312     0.70300658E+00
     10.32672     0.72003237E+00
     10.34033     0.70178015E+00
     10.35394     0.69984474E+00
     10.36754     0.69260643E+00
     10.38115     0.68477159E+00
     10.39475     0.67739528E+00
     10.40836     0.67023736E+00
     10.42196     0.66331255E+00
     10.43557     0.65686438E+00
     10.44918     0.65039196E+00
     10.46278     0.64377899E+00
     10.47639     0.63765840E+00
     10.48999     0.63208688E+00
     10.50360     0.62727036E+00
     10.51720     0.62274671E+00
     10.53081     0.61851200E+00
     10.54442     0.61458576E+00
     10.55802     0.61068965E+00
     10.57163     0.60720580E+00
     10.58523     0.60398385E+00
     10.59884     0.60315758E+00
     10.61244     0.60252745E+00
     10.62605     0.60167225E+00
     10.63966     0.60008630E+00
     10.65326     0.59854404E+00
     10.66687     0.59589682E+00
     10.68047     0.59338207E+00
     10.69408     0.59129436E+00
     10.70768     0.58917333E+00
     10.72129     0.58678558E+00
     10.73490     0.58680661E+00
     10.74850     0.58136588E+00
     10.76211     0.57820003E+00
     10.77571     0.57488235E+00
     10.78932     0.57221643E+00
     10.80292     0.57059172E+00
     10.81653     0.56911876E+00
     10.83014     0.56794596E+00
     10.84374     0.56662859E+00
     10.85735     0.56458213E+00
     10.87095     0.56190762E+00
     10.88456     0.56015044E+00
     10.89816     0.55729016E+00
     10.91177     0.55372311E+00
     10.92538     0.55156831E+00
     10.93898     0.55003480E+00
     10.95259     0.54973208E+00
     10.96619     0.54515769E+00
     10.97980     0.54191454E+00
     10.99340     0.53925066E+00
     11.00701     0.53690924E+00
     11.02062     0.53486093E+00
     11.03422     0.53305155E+00
     11.04783     0.53173280E+00
     11.06143     0.53231204E+00
     11.07504     0.53324201E+00
     11.08864     0.53437913E+00
     11.10225     0.53561917E+00
     11.11585     0.53712492E+00
     11.12946     0.53840520E+00
     11.14307     0.53735580E+00
     11.15667     0.53651692E+00
     11.17028     0.53582651E+00
     11.18388     0.53475010E+00
     11.19749     0.53267205E+00
     11.21109     0.53077827E+00
     11.22470     0.52877871E+00
     11.23831     0.52627808E+00
     11.25191     0.52317510E+00
     11.26552     0.51948240E+00
     11.27912     0.51517567E+00
     11.29273     0.51193163E+00
     11.30633     0.50943102E+00
     11.31994     0.50645472E+00
     11.33355     0.50334972E+00
     11.34715     0.50094475E+00
     11.36076     0.49934221E+00
     11.37436     0.49832701E+00
     11.38797     0.50369880E+00
     11.40157     0.49841433E+00
     11.41518     0.49857412E+00
     11.42879     0.50008502E+00
     11.44239     0.50037925E+00
     11.45600     0.49761741E+00
     11.46960     0.49415440E+00
     11.48321     0.49061492E+00
     11.49681     0.48899636E+00
     11.51042     0.48715310E+00
     11.52403     0.48527802E+00
     11.53763     0.48782359E+00
     11.55124     0.50605822E+00
     11.56484     0.49299418E+00
     11.57845     0.48340239E+00
     11.59205     0.47942588E+00
     11.60566     0.47508823E+00
     11.61927     0.47228691E+00
     11.63287     0.47072300E+00
     11.64648     0.47142812E+00
     11.66008     0.47008844E+00
     11.67369     0.46819345E+00
     11.68729     0.46180265E+00
     11.70090     0.46036177E+00
     11.71451     0.45789404E+00
     11.72811     0.45228399E+00
     11.74172     0.44858606E+00
     11.75532     0.44513172E+00
     11.76893     0.44166241E+00
     11.78253     0.43826538E+00
     11.79614     0.43493061E+00
     11.80975     0.43142531E+00
     11.82335     0.42761648E+00
     11.83696     0.42991566E+00
     11.85056     0.42094089E+00
     11.86417     0.41626735E+00
     11.87777     0.41267318E+00
     11.89138     0.40793913E+00
     11.90499     0.40241520E+00
     11.91859     0.39747656E+00
     11.93220     0.39335804E+00
     11.94580     0.38959131E+00
     11.95941     0.38554753E+00
     11.97301     0.38174068E+00
     11.98662     0.37851272E+00
     12.00023     0.37554284E+00
     12.01383     0.37275712E+00
     12.02744     0.36990327E+00
     12.04104     0.36731809E+00
     12.05465     0.36486458E+00
     12.06825     0.36262639E+00
     12.08186     0.36038654E+00
     12.09547     0.35909143E+00
     12.10907     0.35721572E+00
     12.12268     0.35943455E+00
     12.13628     0.35730825E+00
     12.14989     0.35581979E+00
     12.16349     0.35381455E+00
     12.17710     0.35169095E+00
     12.19071     0.35025938E+00
     12.20431     0.35354416E+00
     12.21792     0.35687155E+00
     12.23152     0.35683512E+00
     12.24513     0.35450391E+00
     12.25873     0.35068627E+00
     12.27234     0.34772093E+00
     12.28594     0.34529825E+00
     12.29955     0.34293303E+00
     12.31316     0.34298990E+00
     12.32676     0.34152764E+00
     12.34037     0.34111581E+00
     12.35397     0.33719842E+00
     12.36758     0.33442059E+00
     12.38118     0.33059391E+00
     12.39479     0.32643792E+00
     12.40840     0.32325366E+00
     12.42200     0.32150508E+00
     12.43561     0.32094829E+00
     12.44921     0.32207485E+00
     12.46282     0.32381879E+00
     12.47642     0.32505122E+00
     12.49003     0.32569446E+00
     12.50364     0.32629509E+00
     12.51724     0.32690372E+00
     12.53085     0.32689257E+00
     12.54445     0.32689493E+00
     12.55806     0.32708889E+00
     12.57166     0.32718929E+00
     12.58527     0.32685395E+00
     12.59888     0.32614142E+00
     12.61248     0.32622341E+00
     12.62609     0.32770881E+00
     12.63969     0.33071321E+00
     12.65330     0.33417013E+00
     12.66690     0.33639631E+00
     12.68051     0.33783695E+00
     12.69412     0.33822629E+00
     12.70772     0.33700480E+00
     12.72133     0.33480295E+00
     12.73493     0.33245200E+00
     12.74854     0.33165202E+00
     12.76214     0.33088526E+00
     12.77575     0.32934216E+00
     12.78936     0.32735283E+00
     12.80296     0.32589784E+00
     12.81657     0.32199499E+00
     12.83017     0.31688181E+00
     12.84378     0.31485664E+00
     12.85738     0.31483803E+00
     12.87099     0.31269189E+00
     12.88460     0.31163968E+00
     12.89820     0.31083032E+00
     12.91181     0.31029017E+00
     12.92541     0.30987792E+00
     12.93902     0.30939511E+00
     12.95262     0.30838604E+00
     12.96623     0.30763422E+00
     12.97984     0.30738705E+00
     12.99344     0.30645587E+00
     13.00705     0.30564147E+00
     13.02065     0.30454988E+00
     13.03426     0.30280983E+00
     13.04786     0.30225333E+00
     13.06147     0.30269376E+00
     13.07508     0.30296732E+00
     13.08868     0.30263486E+00
     13.10229     0.30257625E+00
     13.11589     0.30315127E+00
     13.12950     0.30369111E+00
     13.14310     0.30530781E+00
     13.15671     0.30623363E+00
     13.17032     0.30703087E+00
     13.18392     0.30744337E+00
     13.19753     0.30601453E+00
     13.21113     0.30327940E+00
     13.22474     0.29962893E+00
     13.23834     0.29659514E+00
     13.25195     0.29406733E+00
     13.26556     0.29187248E+00
     13.27916     0.28982307E+00
     13.29277     0.28791889E+00
     13.30637     0.28609735E+00
     13.31998     0.28438584E+00
     13.33358     0.28277939E+00
     13.34719     0.28130226E+00
     13.36080     0.28004414E+00
     13.37440     0.27888616E+00
     13.38801     0.27797451E+00
     13.40161     0.27735907E+00
     13.41522     0.27638435E+00
     13.42882     0.27539943E+00
     13.44243     0.27400282E+00
     13.45603     0.27284143E+00
     13.46964     0.27217479E+00
     13.48325     0.27166841E+00
     13.49685     0.27068797E+00
     13.51046     0.27056475E+00
     13.52406     0.26910650E+00
     13.53767     0.26746179E+00
     13.55127     0.26755786E+00
     13.56488     0.26588392E+00
     13.57849     0.26510114E+00
     13.59209     0.26441513E+00
     13.60570     0.26383545E+00